##TITLE= [Co(H2O)6]2+
##JCAMP-DX= 4.24 $$Exported PE UV WinLab Data File
##DATA TYPE= UV/VIS SPECTRUM
##ORIGIN= Chem. Dept. UWI, JAMAICA
##OWNER= public domain
##DATE= 97/07/07
##TIME= 09:47:58.00
##SPECTROMETER/DATA SYSTEM= PERKIN-ELMER LAMBDA 19 UV/VIS/NIR UV
##RESOLUTION= 1.000000
##DELTAX= -1.000000
##XUNITS= NANOMETERS
##YUNITS= ABSORBANCE
##XFACTOR= 1.00
##YFACTOR= .00000011920928955078
##FIRSTX= 1000.00
##LASTX= 350.00
##NPOINTS= 651
##FIRSTY= .01
##MAXY= .009355
##MINY= .51
##$ASSIGNMENT TYPE= CHIME
##$CHIME TARGET= MOLDISPLAY
##PEAK ASSIGNMENT= (XYWA)
(510, -1, 30, <select *; label off; spacefill off; wireframe on; select atomno=1; 
label "4A2g - 4T1g"; spacefill 40>)
(470, -1, 40, <select *; label off; spacefill off; wireframe on; select atomno=1; 
label "4T1g(P) - 4T1g"; spacefill 40>)
(675, -1, 325, <select *; label off; spacefill off; wireframe on>)
##XYDATA= (X++(Y..Y))
  1000.000000  287285   283804   280935   278494   276128   
  995.000000   274056   269770   267194   265777   266381   
  990.000000   263344   264476   260685   261658   256893   
  985.000000   257304   254209   255232   252330   252799   
  980.000000   250753   250384   248211   245208   245074   
  975.000000   241693   241877   239554   241961   238186   
  970.000000   239252   236190   236702   232885   233078   
  965.000000   229487   228741   224505   224823   222131   
  960.000000   219220   216150   213314   211402   207207   
  955.000000   205244   201109   199498   195455   195371   
  950.000000   191756   191529   188106   187981   185774   
  945.000000   185649   182822   182637   179441   180272   
  940.000000   176941   177294   174433   174483   171715   
  935.000000   172722   169115   168544   165927   166464   
  930.000000   163855   164912   161011   162077   160340   
  925.000000   158553   158998   156414   156775   154670   
  920.000000   156381   152858   154300   151650   152816   
  915.000000   149913   151599   149074   151088   147480   
  910.000000   149326   147757   148428   147304   146063   
  905.000000   146038   145459   144788   143605   144125   
  900.000000   143085   143882   141541   143370   140510   
  895.000000   143412   140182   140904   141013   140224   
  890.000000   141197   139176   141667   138630   140753   
  885.000000   137288   141038   137850   138689   137582   
  880.000000   138907   136206   138261   136382   137582   
  875.000000   135351   137473   135317   136458   135409   
  870.000000   137255   135007   135804   134839   135468   
  865.000000   134747   134864   133883   134461   138891   
  860.000000   152950   154233   150643   148378   157169   
  855.000000   149200   151322   149242   146549   146935   
  850.000000   149838   146063   144494   144251   141944   
  845.000000   144796   143597   139385   139914   138211   
  840.000000   138765   136449   134638   132901   136248   
  835.000000   131383   132398   130653   131802   125964   
  830.000000   126400   125989   126903   123908   122315   
  825.000000   124387   121677   121409   120335   121182   
  820.000000   119110   118984   119546   114320   113255   
  815.000000   111988   116250   111879   111745   110956   
  810.000000   112659   110562   113037   109849   108515   
  805.000000   108440   108675   104220   104875   107341   
  800.000000   105269   99707    99246    101058   99280    
  795.000000   97442    98441    97518    97879    95328    
  790.000000   92720    93273    92300    91931    90916    
  785.000000   89817    89280    88953    87854    87863    
  780.000000   88592    87452    86881    85833    86034    
  775.000000   83928    83861    82007    81764    82511    
  770.000000   83257    79650    81789    81286    81429    
  765.000000   80573    79558    80246    79650    79390    
  760.000000   80531    78484    78652    79952    79650    
  755.000000   80606    78979    79071    80296    78476    
  750.000000   80388    81789    81412    80976    81923    
  745.000000   82964    82318    82628    81403    84390    
  740.000000   84918    85170    85170    86428    88567    
  735.000000   87988    87376    89507    89230    91419    
  730.000000   91537    94272    93089    95513    96796    
  725.000000   97493    97635    99598    100404   102702   
  720.000000   104145   106024   108121   108406   109874   
  715.000000   111737   113507   115780   116141   117944   
  710.000000   120914   122575   123539   127868   128933   
  705.000000   131584   133597   135057   138630   138278   
  700.000000   141306   144553   145778   148235   152564   
  695.000000   153529   155257   159124   162974   164174   
  690.000000   167663   169668   172453   176606   178552   
  685.000000   181899   185372   187561   189440   193140   
  680.000000   196403   199448   201285   204448   207769   
  675.000000   210152   213700   216057   219094   222223   
  670.000000   225109   229748   231509   234907   239076   
  665.000000   240787   243731   248496   249478   253169   
  660.000000   256314   258940   262371   264812   267404   
  655.000000   269711   272924   275021   277118   279156   
  650.000000   281933   284240   287361   289164   291597   
  645.000000   292578   296345   297746   299222   301722   
  640.000000   303819   305396   307736   309297   310882   
  635.000000   312300   313214   314657   316578   316645   
  630.000000   318122   319447   320948   322249   323356   
  625.000000   325948   327139   327710   329295   330042   
  620.000000   331275   332550   332827   334781   334697   
  615.000000   336358   338086   339789   342432   342180   
  610.000000   345552   349101   350040   352716   355442   
  605.000000   359695   363202   366322   370685   374208   
  600.000000   378771   383150   386245   391237   395179   
  595.000000   399759   405137   411051   417543   424657   
  590.000000   431703   440193   449152   459092   468831   
  585.000000   480324   493158   506370   521973   538406   
  580.000000   556257   575216   595264   617930   642182   
  575.000000   668556   697371   727007   758976   792497   
  570.000000   828812   868364   909183   952091   996827   
  565.000000   1044667  1093464  1145549  1198019  1252915  
  560.000000   1309789  1370103  1431030  1492384  1558688  
  555.000000   1624253  1692209  1762044  1831888  1906177  
  550.000000   1980945  2057927  2136747  2215851  2297053  
  545.000000   2378968  2463517  2548820  2633973  2721995  
  540.000000   2809480  2897350  2986546  3071925  3159133  
  535.000000   3242793  3325941  3407285  3485056  3558817  
  530.000000   3630590  3700727  3767215  3828930  3888045  
  525.000000   3942621  3995167  4043796  4089430  4130778  
  520.000000   4169004  4202710  4233270  4259920  4280791  
  515.000000   4300244  4313893  4322583  4327524  4328371  
  510.000000   4323565  4314614  4302081  4284910  4264526  
  505.000000   4239561  4211082  4180413  4146875  4111610  
  500.000000   4072510  4031708  3990352  3946606  3904210  
  495.000000   3857988  3813747  3769103  3724425  3681928  
  490.000000   3640749  3598797  3562357  3524550  3493201  
  485.000000   3463632  3434750  3408686  3385047  3359621  
  480.000000   3335370  3311043  3285642  3255678  3223122  
  475.000000   3188519  3150762  3111629  3071665  3030763  
  470.000000   2991630  2951532  2913658  2876110  2839049  
  465.000000   2800218  2761824  2720200  2675111  2629292  
  460.000000   2580059  2525408  2468533  2409502  2348031  
  455.000000   2282255  2217152  2150789  2083831  2015355  
  450.000000   1948297  1881750  1815094  1751047  1685171  
  445.000000   1623137  1560785  1501326  1443789  1386319  
  440.000000   1331289  1279355  1228093  1177946  1132588  
  435.000000   1085839  1041639  998496   959405   919241   
  430.000000   882364   844582   809518   776576   745144   
  425.000000   713376   684058   655000   629356   604265   
  420.000000   581406   558908   538515   518769   499718   
  415.000000   484409   467028   452708   438246   426586   
  410.000000   413567   400993   388645   379677   369930   
  405.000000   359897   351970   344562   337826   331996   
  400.000000   324950   316494   308810   301487   292897   
  395.000000   284299   274408   266330   256272   248454   
  390.000000   239151   230914   222231   214564   206427   
  385.000000   198936   188601   183275   176438   170650   
  380.000000   164753   156851   150173   148160   140770   
  375.000000   139193   134713   130259   125972   123128   
  370.000000   121073   117986   116292   113968   111829   
  365.000000   109958   108398   105126   105772   104816   
  360.000000   102266   101268   103533   103440   102652   
  355.000000   103105   101360   102199   102643   102937   
  350.000000   103004   
##END= 
