##TITLE= [Cr(H2O)6]3+
##JCAMP-DX= 4.24 $$Exported PE UV WinLab Data File
##DATA TYPE= UV/VIS SPECTRUM
##ORIGIN= Chem. Dept. UWI, JAMAICA
##OWNER= public domain
##DATE= 97/07/07
##TIME= 09:48:25.00
##SPECTROMETER/DATA SYSTEM= PERKIN-ELMER LAMBDA 19 UV/VIS/NIR UV
##RESOLUTION= 1.000000
##DELTAX= -1.000000
##XUNITS= NANOMETERS
##YUNITS= ABSORBANCE
##XFACTOR= 1.00
##YFACTOR= .00000011920928955078
##FIRSTX= 1000.00
##LASTX= 350.00
##NPOINTS= 651
##FIRSTY= .06
##MINY= .000143
##MAXY= .34
##$ASSIGNMENT TYPE= CHIME
##$CHIME TARGET= MOLDISPLAY
##PEAK ASSIGNMENT= (XYWA)
(676, -1, 10, <select *; label off; spacefill off; wireframe on; select atomno=1; 
label "2Eg/2T1g - 4A2g"; spacefill 40>)
(582, -1, 40, <select *; label off; spacefill off; wireframe on; select atomno=1; 
label "4T2g - 4A2g"; spacefill 40>)
(415, -1, 40, <select *; label off; spacefill off; wireframe on; select atomno=1; 
label "4T1g - 4A2g"; spacefill 40>)
(675, -1, 325, <select *; label off; spacefill off; wireframe on>)
##XYDATA= (X++(Y..Y))
  1000.000000  2987     3255     2802     3255     3171     
  995.000000   2802     1217     1787     1200     4228     
  990.000000   3297     6669     4539     7366     4094     
  985.000000   7676     5302     6921     5847     7961     
  980.000000   7483     8095     8188     6443     7827     
  975.000000   5621     7743     7382     9547     8943     
  970.000000   11988    9136     11510    9681     11015    
  965.000000   8573     11166    8070     9169     9798     
  960.000000   8750     8364     7961     8959     7886     
  955.000000   8917     7802     8272     7215     9857     
  950.000000   8095     9748     8842     10545    8917     
  945.000000   11459    11342    11845    10444    12365    
  940.000000   10788    11275    9094     10402    8674     
  935.000000   10687    8523     10226    8162     10511    
  930.000000   9463     10620    8641     10377    9119     
  925.000000   8313     9689     8280     8632     7064     
  920.000000   9958     6996     8783     7441     9630     
  915.000000   6552     8867     6996     9647     7231     
  910.000000   8943     8347     8523     8121     8221     
  905.000000   8372     8230     7877     6829     8565     
  900.000000   7131     8817     6954     9110     6938     
  895.000000   9312     6954     8213     8817     8011     
  890.000000   8716     7558     10310    6963     10251    
  885.000000   6384     9647     6770     8783     6753     
  880.000000   9320     6804     8624     7089     9672     
  875.000000   7248     9354     7600     9513     8272     
  870.000000   9362     7592     9010     7936     8917     
  865.000000   7483     8423     7919     8632     9186     
  860.000000   12885    17658    10511    12139    19722    
  855.000000   15402    11627    11736    11199    11971    
  850.000000   14915    10880    12885    12004    10461    
  845.000000   12030    12021    12910    11249    12105    
  840.000000   12088    11501    13313    12030    16316    
  835.000000   10075    10360    10302    13934    13011    
  830.000000   9513     9438     13196    12516    9932     
  825.000000   13464    10687    12734    12449    10436    
  820.000000   12407    12978    11795    10679    11677    
  815.000000   12525    13187    10922    11929    12256    
  810.000000   11929    12206    13187    11803    12264    
  805.000000   14269    13456    12449    13355    11988    
  800.000000   16216    11795    13229    14009    14127    
  795.000000   14680    14789    14664    15268    14999    
  790.000000   12843    12600    15612    15377    14664    
  785.000000   15326    16769    16417    15989    17264    
  780.000000   17457    17063    18178    17080    19076    
  775.000000   16375    18824    17407    18766    19923    
  770.000000   20083    18908    22213    21534    22205    
  765.000000   22717    22239    23732    22683    22843    
  760.000000   24965    26005    25963    28723    29159    
  755.000000   30300    30761    30745    33152    33764    
  750.000000   34939    37212    36667    37128    39796    
  745.000000   42354    43051    45097    44762    47153    
  740.000000   51037    52488    54526    57311    59106    
  735.000000   61313    62303    64928    68309    72000    
  730.000000   74391    78065    79927    81538    86705    
  725.000000   90010    94431    97887    102492   106745   
  720.000000   111342   116694   121350   125527   131752   
  715.000000   136651   141902   148680   155030   161766   
  710.000000   167588   175096   182419   192334   199523   
  705.000000   208214   216913   225922   237549   244964   
  700.000000   256658   268419   278401   291563   303953   
  695.000000   315496   328599   343380   358177   372555   
  690.000000   386564   401655   417359   433993   450511   
  685.000000   466868   485567   501446   519297   536225   
  680.000000   553447   572355   588797   604668   621823   
  675.000000   635068   647920   656979   666047   675543   
  670.000000   684452   694334   704073   715029   729415   
  665.000000   743969   764706   785518   806330   829357   
  660.000000   850614   874597   898798   923771   949373   
  655.000000   974127   1001432  1028209  1055900  1085411  
  650.000000   1112825  1143871  1175244  1204797  1234980  
  645.000000   1265103  1296082  1327129  1357579  1388927  
  640.000000   1418766  1448403  1476496  1503440  1530653  
  635.000000   1557589  1583350  1610471  1638027  1665156  
  630.000000   1695758  1723968  1754587  1786589  1817350  
  625.000000   1851022  1883369  1914079  1947164  1979100  
  620.000000   2011027  2043566  2076189  2107160  2136797  
  615.000000   2167248  2198579  2229231  2259136  2287037  
  610.000000   2316498  2344935  2371644  2396995  2422085  
  605.000000   2447234  2469657  2492709  2514326  2534241  
  600.000000   2554701  2573936  2590747  2607700  2621969  
  595.000000   2636876  2650322  2663216  2674549  2684842  
  590.000000   2694354  2702491  2710125  2716710  2720703  
  585.000000   2724545  2726894  2727976  2728890  2726961  
  580.000000   2724671  2720845  2716114  2709697  2702978  
  575.000000   2694866  2685504  2674842  2661957  2648980  
  570.000000   2635181  2620233  2603573  2585411  2567485  
  565.000000   2546371  2526414  2503723  2481133  2456688  
  560.000000   2430876  2405576  2377340  2349062  2321548  
  555.000000   2291265  2261787  2231639  2198470  2168632  
  550.000000   2135572  2102211  2069638  2036176  2001455  
  545.000000   1967146  1932400  1899357  1863681  1829514  
  540.000000   1795305  1760392  1725210  1689206  1655375  
  535.000000   1620478  1586437  1552145  1519085  1484818  
  530.000000   1451683  1419202  1386570  1353897  1322221  
  525.000000   1291427  1261471  1231792  1202088  1173315  
  520.000000   1145171  1116499  1090402  1064875  1038829  
  515.000000   1015383  991282   968096   946017   924735   
  510.000000   904661   883564   865285   846335   830162   
  505.000000   813746   796784   783782   769731   757114   
  500.000000   744045   733274   723174   714282   707277   
  495.000000   699635   693168   688604   684293   682296   
  490.000000   681071   680778   681709   682288   687480   
  485.000000   691171   695970   703712   712738   721790   
  480.000000   733995   746813   760587   776584   792808   
  475.000000   812269   831773   854472   877507   902631   
  470.000000   929047   956436   986811   1018419  1049340  
  465.000000   1083649  1117120  1152276  1187701  1225559  
  460.000000   1263836  1302055  1341070  1380463  1420552  
  455.000000   1459702  1500865  1540669  1583493  1624907  
  450.000000   1668167  1712191  1757733  1802771  1848002  
  445.000000   1894987  1942466  1990927  2038004  2086876  
  440.000000   2135346  2184595  2232754  2279269  2326942  
  435.000000   2371812  2415894  2458500  2500661  2541354  
  430.000000   2580194  2619947  2654206  2688054  2720149  
  425.000000   2749820  2777360  2802743  2826852  2847966  
  420.000000   2866581  2882469  2897401  2907777  2916199  
  415.000000   2922323  2924940  2926517  2924252  2918901  
  410.000000   2910696  2899238  2886235  2869609  2849820  
  405.000000   2825871  2801275  2772402  2743537  2710486  
  400.000000   2674087  2635223  2593523  2550146  2505661  
  395.000000   2457284  2409980  2360160  2305651  2253214  
  390.000000   2198135  2142350  2084712  2027678  1970568  
  385.000000   1912855  1853019  1795448  1737365  1679702  
  380.000000   1623808  1565331  1506813  1450860  1399480  
  375.000000   1346414  1292677  1243821  1195192  1146841  
  370.000000   1102146  1058500  1015626  972995   934600   
  365.000000   897430   861468   826329   795853   765662   
  360.000000   735832   708402   683143   660930   637115   
  355.000000   619172   597982   581289   566743   551895   
  350.000000   540051   
##END= 
